File: Compressive.csv
Water kg/m3,Cement kg/m3,Water / Cement Ratio,Natural Coarse Aggregate Fineness Modulus,Natural Coarse Aggregate (kg/m3),Recycled Coarse Aggregate Fineness Modulus,Recycled coarse aggregate Absorption Capacity (%),Recycled Coarse Aggregate (kg/m3),Replacement Percentage of Recycled Coarse Aggregate (%),Natural Fine Aggregate Fineness Modulus,Natural Fine Aggregate (kg/m3),Crumb Rubber FM,Crumb Rubber (kg/m3),Replacement Percentage of Crumb Rubber (%),Addition of Fiber (kg/m3),Fiber Mass(%),No Fiber,PPFiber,SteelFiber,SteelTireWiresFiber,Age (Days),Compressive Strength (MPa)
162.298,427.1,0.38,6.51,990.2,0,0,0,0,2.39,678.7,0,0,0,0,0,1,0,0,0,7,18.8
162.298,427.1,0.38,6.51,891.2,6.45,3.23,99.02,10,2.39,678.7,0,0,0,0,0,1,0,0,0,7,25.3
162.298,427.1,0.38,6.51,891.2,6.45,3.23,99.02,10,2.39,678.7,0,0,0,9.1,1,0,1,0,0,7,25.82
162.298,427.1,0.38,6.51,891.2,6.45,3.23,99.02,10,2.39,662.1,3.49,16.6,5,9.1,1,0,1,0,0,7,23.21
162.298,427.1,0.38,6.51,891.2,6.45,3.23,99.02,10,2.39,662.1,3.49,16.6,5,18.2,2,0,1,0,0,7,22.57
162.298,427.1,0.38,6.51,891.2,6.45,3.23,99.02,10,2.39,645.5,3.49,33.2,10,9.1,1,0,1,0,0,7,17.96
162.298,427.1,0.38,6.51,693.2,6.45,3.23,297.06,30,2.39,678.7,0,0,0,0,0,1,0,0,0,7,14.96
162.298,427.1,0.38,6.51,693.2,6.45,3.23,297.06,30,2.39,678.7,0,0,0,9.1,1,0,1,0,0,7,23.39
162.298,427.1,0.38,6.51,693.2,6.45,3.23,297.06,30,2.39,678.7,0,0,0,18.2,2,0,1,0,0,7,29.46
162.298,427.1,0.38,6.51,693.2,6.45,3.23,297.06,30,2.39,662.1,3.49,16.6,5,18.2,2,0,1,0,0,7,24.13
162.298,427.1,0.38,6.51,693.2,6.45,3.23,297.06,30,2.39,645.5,3.49,33.2,10,9.1,1,0,1,0,0,7,24.07
162.298,427.1,0.38,6.51,693.2,6.45,3.23,297.06,30,2.39,645.5,3.49,33.2,10,18.2,2,0,1,0,0,7,21.92
162.298,427.1,0.38,6.51,891.2,6.45,3.23,99.02,10,2.39,678.7,0,0,0,0,0,1,0,0,0,28,38.1
162.298,427.1,0.38,6.51,891.2,6.45,3.23,99.02,10,2.39,678.7,0,0,0,9.1,1,0,1,0,0,28,34.84
162.298,427.1,0.38,6.51,891.2,6.45,3.23,99.02,10,2.39,678.7,0,0,0,18.2,2,0,1,0,0,28,37.61
162.298,427.1,0.38,6.51,891.2,6.45,3.23,99.02,10,2.39,662.1,3.49,16.6,5,18.2,2,0,1,0,0,28,32.8
162.298,427.1,0.38,6.51,891.2,6.45,3.23,99.02,10,2.39,645.5,3.49,33.2,10,9.1,1,0,1,0,0,28,31.03
162.298,427.1,0.38,6.51,891.2,6.45,3.23,99.02,10,2.39,645.5,3.49,33.2,10,18.2,2,0,1,0,0,28,32.79
162.298,427.1,0.38,6.51,693.2,6.45,3.23,297.06,30,2.39,678.7,0,0,0,9.1,1,0,1,0,0,28,33.14
162.298,427.1,0.38,6.51,693.2,6.45,3.23,297.06,30,2.39,678.7,0,0,0,18.2,2,0,1,0,0,28,40.21
162.298,427.1,0.38,6.51,693.2,6.45,3.23,297.06,30,2.39,662.1,3.49,16.6,5,9.1,1,0,1,0,0,28,31.19
162.298,427.1,0.38,6.51,693.2,6.45,3.23,297.06,30,2.39,645.5,3.49,33.2,10,9.1,1,0,1,0,0,28,31.38
162.298,427.1,0.38,6.51,693.2,6.45,3.23,297.06,30,2.39,645.5,3.49,33.2,10,18.2,2,0,1,0,0,28,29.06
162.298,427.1,0.38,6.51,990.2,0,0,0,0,2.39,678.7,0,0,0,0,0,1,0,0,0,56,37.41
162.298,427.1,0.38,6.51,891.2,6.45,3.23,99.02,10,2.39,678.7,0,0,0,9.1,1,0,1,0,0,56,41.86
162.298,427.1,0.38,6.51,891.2,6.45,3.23,99.02,10,2.39,678.7,0,0,0,18.2,2,0,1,0,0,56,41.13
162.298,427.1,0.38,6.51,891.2,6.45,3.23,99.02,10,2.39,662.1,3.49,16.6,5,9.1,1,0,1,0,0,56,35.24
162.298,427.1,0.38,6.51,891.2,6.45,3.23,99.02,10,2.39,645.5,3.49,33.2,10,9.1,1,0,1,0,0,56,28.99
162.298,427.1,0.38,6.51,891.2,6.45,3.23,99.02,10,2.39,645.5,3.49,33.2,10,18.2,2,0,1,0,0,56,37.46
162.298,427.1,0.38,6.51,693.2,6.45,3.23,297.06,30,2.39,678.7,0,0,0,0,0,1,0,0,0,56,32.63
162.298,427.1,0.38,6.51,693.2,6.45,3.23,297.06,30,2.39,678.7,0,0,0,18.2,2,0,1,0,0,56,46.09
162.298,427.1,0.38,6.51,693.2,6.45,3.23,297.06,30,2.39,662.1,3.49,16.6,5,9.1,1,0,1,0,0,56,35.7
162.298,427.1,0.38,6.51,693.2,6.45,3.23,297.06,30,2.39,662.1,3.49,16.6,5,18.2,2,0,1,0,0,56,36.7
162.298,427.1,0.38,6.51,693.2,6.45,3.23,297.06,30,2.39,645.5,3.49,33.2,10,18.2,2,0,1,0,0,56,31.59
188,428,0.44,6.51,1015,0,0,0,0,2.39,638,0,0,0,0,0,1,0,0,0,28,33.77
188,428,0.44,6.51,710.5,6.45,3.23,304.5,30,2.39,638,0,0,0,0,0,1,0,0,0,28,35.17
188,428,0.44,6.51,710.5,6.45,3.23,304.5,30,2.39,622.4,3.49,15.62,5,0,0,1,0,0,0,28,28.56
188,428,0.44,6.51,710.5,6.45,3.23,304.5,30,2.39,622.4,3.49,15.62,5,4.54,0.5,0,1,0,0,28,30.09
188,428,0.44,6.51,710.5,6.45,3.23,304.5,30,2.39,606.8,3.49,31.24,10,0,0,1,0,0,0,28,26.04
188,428,0.44,6.51,1015,0,0,0,0,2.39,638,0,0,0,0,0,1,0,0,0,56,38.89
188,428,0.44,6.51,710.5,6.45,3.23,304.5,30,2.39,638,0,0,0,0,0,1,0,0,0,56,35.02
188,428,0.44,6.51,710.5,6.45,3.23,304.5,30,2.39,638,0,0,0,4.54,0.5,0,1,0,0,56,38.53
188,428,0.44,6.51,710.5,6.45,3.23,304.5,30,2.39,622.4,3.49,15.62,5,4.54,0.5,0,1,0,0,56,34
188,428,0.44,6.51,710.5,6.45,3.23,304.5,30,2.39,606.8,3.49,31.24,10,0,0,1,0,0,0,56,27.15
188,428,0.44,6.51,710.5,6.45,3.23,304.5,30,2.39,606.8,3.49,31.24,10,4.54,0.5,0,1,0,0,56,30.32
205,456,0.45,6.73,685.7,6.73,2.97,293.9,30,2.8,731.4,0,0,0,0,0,1,0,0,0,7,19.8
205,456,0.45,6.73,685.7,6.73,2.97,293.9,30,2.8,731.4,0,0,0,4.55,0.5,0,1,0,0,7,21.8
205,456,0.45,6.73,685.7,6.73,2.97,293.9,30,2.8,694.8,3.12,15.9,5,0,0,1,0,0,0,7,16.5
205,456,0.45,6.73,685.7,6.73,2.97,293.9,30,2.8,658.3,3.12,31.8,10,0,0,1,0,0,0,7,10.6
205,456,0.45,6.73,685.7,6.73,2.97,293.9,30,2.8,658.3,3.12,31.8,10,4.55,0.5,0,1,0,0,7,14.8
205,456,0.45,6.73,685.7,6.73,2.97,293.9,30,2.8,621.7,3.12,47.7,15,0,0,1,0,0,0,7,11
205,456,0.45,6.73,979.6,0,0,0,0,2.8,731.4,0,0,0,0,0,1,0,0,0,28,44.6
205,456,0.45,6.73,685.7,6.73,2.97,293.9,30,2.8,731.4,0,0,0,0,0,1,0,0,0,28,35.3
205,456,0.45,6.73,685.7,6.73,2.97,293.9,30,2.8,731.4,0,0,0,4.55,0.5,0,1,0,0,28,43
205,456,0.45,6.73,685.7,6.73,2.97,293.9,30,2.8,694.8,3.12,15.9,5,4.55,0.5,0,1,0,0,28,38.3
205,456,0.45,6.73,685.7,6.73,2.97,293.9,30,2.8,658.3,3.12,31.8,10,0,0,1,0,0,0,28,30.7
205,456,0.45,6.73,685.7,6.73,2.97,293.9,30,2.8,658.3,3.12,31.8,10,4.55,0.5,0,1,0,0,28,31.93
205,456,0.45,6.73,685.7,6.73,2.97,293.9,30,2.8,621.7,3.12,47.7,15,4.55,0.5,0,1,0,0,28,31.2
205,456,0.45,6.73,979.6,0,0,0,0,2.8,731.4,0,0,0,0,0,1,0,0,0,56,46.5
205,456,0.45,6.73,685.7,6.73,2.97,293.9,30,2.8,731.4,0,0,0,0,0,1,0,0,0,56,40.3
205,456,0.45,6.73,685.7,6.73,2.97,293.9,30,2.8,694.8,3.12,15.9,5,0,0,1,0,0,0,56,37.5
205,456,0.45,6.73,685.7,6.73,2.97,293.9,30,2.8,694.8,3.12,15.9,5,4.55,0.5,0,1,0,0,56,43.2
205,456,0.45,6.73,685.7,6.73,2.97,293.9,30,2.8,658.3,3.12,31.8,10,0,0,1,0,0,0,56,33.8
205,456,0.45,6.73,685.7,6.73,2.97,293.9,30,2.8,621.7,3.12,47.7,15,0,0,1,0,0,0,56,29.6
205,456,0.45,6.73,685.7,6.73,2.97,293.9,30,2.8,621.7,3.12,47.7,15,4.55,0.5,0,1,0,0,56,36.1
139,330,0.421212,0,0,6.5,3,1340,100,2.6,504,2.5,18.1,10,0,0,1,0,0,0,180,39.9
139,330,0.421212,0,0,6.5,3,1340,100,2.6,504,2.5,18.1,10,0,0,1,0,0,0,28,37.5
139,330,0.421212,0,0,6.5,3,1340,100,2.6,504,2.5,18.1,10,0,0,1,0,0,0,28,43.5
139,330,0.421212,0,0,6.5,3,1340,100,2.6,504,2.5,18.1,10,0,0,1,0,0,0,28,47.58
230,589,0.37,6.5,996,0,0,0,0,2.5,572,0,0,0,1,0,0,1,0,0,7,37.5
230,589,0.37,0,0,6.5,7.09,996,100,2.5,572,0,0,0,1,0,0,1,0,0,7,33.6
230,589,0.37,6.5,249,6.5,7.09,747,75,2.5,515,2.5,22.2,10,1,0,0,1,0,0,7,33.8
230,589,0.37,6.5,498,6.5,7.09,498,50,2.5,458,2.5,44.3,20,1,0,0,1,0,0,7,33.1
230,589,0.37,6.5,747,6.5,7.09,249,25,2.5,400,2.5,66.5,30,1,0,0,1,0,0,7,30.7
230,589,0.37,6.5,996,0,0,0,0,2.5,343,2.5,88.6,40,1,0,0,1,0,0,7,26.6
230,589,0.37,0,0,6.5,7.09,996,100,2.5,343,2.5,88.6,40,1,0,0,1,0,0,7,24.2
230,589,0.37,6.5,249,6.5,7.09,747,75,2.5,572,0,0,0,1,0,0,1,0,0,28,47.8
230,589,0.37,6.5,498,6.5,7.09,498,50,2.5,515,2.5,22.2,10,1,0,0,1,0,0,28,47.5
230,589,0.37,6.5,747,6.5,7.09,249,25,2.5,458,2.5,44.3,20,1,0,0,1,0,0,28,46
230,589,0.37,6.5,996,0,0,0,0,2.5,400,2.5,66.5,30,1,0,0,1,0,0,28,42.6
230,589,0.37,0,0,6.5,7.09,996,100,2.5,400,2.5,66.5,30,1,0,0,1,0,0,28,38.3
230,589,0.37,6.5,249,6.5,7.09,747,75,2.5,343,2.5,88.6,40,1,0,0,1,0,0,28,33.9
202.5,450,0.45,6.5,1050.65,6.5,3,167.37,20,2.5,290.11,2.5,65.62,20,0,0,1,0,0,0,7,22.63
202.5,450,0.45,6.5,1106.09,6.5,3,83.69,10,2.5,326.38,2.5,65.62,20,0,0,1,0,0,0,28,28.63
171,342,0.3,6.28,1015,0,0,0,0,2.74,746,0,0,0,0,0,1,0,0,0,28,43
252,446,0.56,6.5,912.95,6.5,8.96,48.1,5,2.5,585,0,0,0,0,0,1,0,0,0,28,25.5
252,446,0.56,6.5,961,0,0,0,0,2.5,526.5,2.5,58.5,10,0,0,1,0,0,0,28,22
252,446,0.56,6.5,864.9,6.5,8.96,96.1,10,2.5,585,2.5,67.5,10,0,0,1,0,0,0,28,20
126,385,0.34,6.5,1142,0,0,0,0,2.38,570,1.79,29,10,0,0,1,0,0,0,28,48.6
155,385,0.34,6.5,571,6.5,8.02,571,50,2.38,507,1.79,57,20,0,0,1,0,0,0,28,35.5
126,385,0.34,6.5,1142,0,0,0,0,2.38,633,0,0,0,4.55,0.5,0,1,0,0,28,36.6
184,385,0.34,0,0,6.5,8.02,1142,100,2.38,507,1.79,57,20,4.55,0.5,0,1,0,0,28,30.6
125,385,0.34,6.5,1142,0,0,0,0,2.38,507,1.79,57,20,0,0,1,0,0,0,56,34.8
185,385,0.34,0,0,6.5,8.02,1142,100,2.38,633,0,0,0,0,0,1,0,0,0,56,50.6
125,385,0.34,6.5,1142,0,0,0,0,2.38,507,1.79,57,20,4.55,0.5,0,1,0,0,56,26.7
155,385,0.34,6.5,571,6.5,8.02,571,50,2.38,570,1.79,29,10,4.55,0.5,0,1,0,0,56,25.6
222,460,0.35,0,0,6.5,3.82,994.5,100,2.52,576.1,2.5,20.4,8,78,1,0,0,1,0,120,49.8
120,385,0.31,6.5,571,6.5,4.42,571,50,2.5,570,2.5,29,10,0,0,1,0,0,0,7,26
124,385,0.31,0,0,6.5,4.42,1142,100,2.5,507,2.5,57,20,4.6,0.1,0,0,0,1,7,39
120,385,0.31,6.5,1142,0,0,0,0,2.5,633,0,0,0,4.6,0.1,0,0,0,1,28,60
120,385,0.31,6.5,571,6.5,4.42,571,50,2.5,570,2.5,29,10,0,0,1,0,0,0,56,35
124,385,0.31,0,0,6.5,4.42,1142,100,2.5,507,2.5,57,20,4.6,0.1,0,0,0,1,56,40
393,874,0.45,0,0,6.5,2,855,90,1.47,874,2.5,95,10,0,0.5,0,0,0,1,28,27.2
393,874,0.45,0,0,6.5,2,760,80,1.47,874,2.5,190,20,0,0.5,0,0,0,1,28,26.12
393,874,0.45,0,0,6.5,2,665,70,1.47,874,2.5,285,30,0,0.5,0,0,0,1,28,25.5
393,874,0.45,0,0,6.5,2,570,60,1.47,874,2.5,380,40,0,0.5,0,0,0,1,28,23.32
393,874,0.45,0,0,6.5,2,475,50,1.47,874,2.5,475,50,0,0.5,0,0,0,1,28,20.82
207,485,0.35,0,0,6.5,3.82,954,100,2.52,625,2.5,7.9,4,78,1,0,0,1,0,88,49.06
172,358.3,0.480045,6.5,1041.2,0,0,0,0,2.52,785.5,0,0,0,0,0,1,0,0,0,90,45.65
191.3,358.3,0.53391,0,0,6.5,2.1,964.9,100,2.52,785.5,0,0,0,78,1,0,0,1,0,90,36.12
191.3,340.4,0.561986,0,0,6.5,2.1,964.9,100,2.52,746.2,2.5,15.7,5,78,1,0,0,1,0,90,34.19
191.3,322.5,0.593178,0,0,6.5,2.1,964.9,100,2.52,707,2.5,31.3,10,78,1,0,0,1,0,90,33.59
191.3,358.3,0.53391,0,0,6.5,2.1,964.9,100,2.52,628.4,2.5,62.7,20,78,1,0,0,1,0,90,30.5
191.3,322.5,0.593178,0,0,6.5,2.1,964.9,100,2.52,628.4,2.5,62.7,20,78,1,0,0,1,0,90,30.96